time (s)	coil I (A)	last det (V)	int current (uC)
74594.152908	0.604625	65.234375	102.148437
74594.154911	0.881230	65.234375	102.148437
74594.156910	0.905539	65.234375	102.148437
74594.158910	0.903051	9.933562	0.123608
74595.216929	0.443528	-108.593750	-250.781250
74595.218930	0.784330	-108.593750	-250.781250
74595.220931	0.908087	-108.593750	-250.781250
74595.222930	0.904826	9.953086	0.147931
74596.232971	0.484851	65.429687	103.027344
74596.234973	0.815732	65.429687	103.027344
74596.236974	0.906951	65.429687	103.027344
74596.238974	0.903842	9.942265	0.125043
74597.296975	0.313972	-82.031250	-256.738281
74597.298977	0.665849	-82.031250	-256.738281
74597.300978	0.899410	-82.031250	-256.738281
74597.302977	0.905612	-82.031250	-256.738281
74597.304977	0.903329	9.936620	0.144296
74598.312994	0.353698	74.316406	104.003906
74598.314995	0.703478	74.316406	104.003906
74598.316995	0.904202	74.316406	104.003906
74598.318998	0.904557	9.950127	0.122613
74599.377998	0.361257	-64.941406	-262.792969
74599.380000	0.710660	-64.941406	-262.792969
74599.382002	0.906854	-64.941406	-262.792969
74599.383999	0.906544	9.971980	0.143877
74600.388524	0.838423	79.003906	106.250000
74600.390525	0.906072	79.003906	106.250000
74600.392526	0.903120	9.934324	0.151196
74601.451073	0.450475	-63.867187	-267.968750
74601.453080	0.790028	-63.867187	-267.968750
74601.455081	0.909036	-63.867187	-267.968750
74601.457086	0.905657	9.962233	0.163338
74602.475169	0.466952	62.792969	114.062500
74602.477169	0.802461	62.792969	114.062500
74602.479171	0.906794	62.792969	114.062500
74602.481169	0.903684	9.940519	0.128357
74603.533195	0.685544	-98.046875	-266.015625
74603.535195	0.902068	-98.046875	-266.015625
74603.537196	0.904699	-98.046875	-266.015625
74603.539194	0.902517	9.927687	0.157673
74604.555203	0.336384	67.578125	117.773437
74604.557205	0.687028	67.578125	117.773437
74604.559215	0.903290	67.578125	117.773437
74604.563214	0.903224	67.578125	117.773437
74604.565214	0.901642	9.918062	0.141214
74605.615220	0.858537	-124.414062	-265.820312
74605.619220	0.902817	-124.414062	-265.820312
74605.621220	0.901021	9.911229	0.132250
74606.637231	0.556218	70.703125	118.847656
74606.639238	0.859333	70.703125	118.847656
74606.643245	0.902467	70.703125	118.847656
74606.645248	0.900652	9.907170	0.153355
74607.687211	0.793214	-93.066406	-275.878906
74607.689213	0.906592	-93.066406	-275.878906
74607.691213	0.903468	9.938152	0.142376
74608.725206	0.385336	69.238281	116.308594
74608.727208	0.733174	69.238281	116.308594
74608.729208	0.905892	69.238281	116.308594
74608.731209	0.904149	9.945642	0.145218
74609.765281	0.328655	-125.683594	-263.671875
74609.767283	0.679654	-125.683594	-263.671875
74609.769284	0.900515	-125.683594	-263.671875
74609.771283	0.901660	-125.683594	-263.671875
74609.773282	0.901773	9.919498	0.139148
74610.807281	0.614089	72.265625	110.253906
74610.809284	0.884287	72.265625	110.253906
74610.811283	0.904932	72.265625	110.253906
74610.813285	0.902473	9.927208	0.158082
74611.839305	0.584265	-108.691406	-257.714844
74611.841307	0.872766	-108.691406	-257.714844
74611.843308	0.905252	-108.691406	-257.714844
74611.845308	0.902695	9.929645	0.160002
74612.889351	0.820309	80.468750	101.171875
74612.891354	0.906102	80.468750	101.171875
74612.893352	0.903045	9.933500	0.131124
74613.927920	0.524412	-89.257812	-249.804687
74613.929921	0.841649	-89.257812	-249.804687
74613.931920	0.906033	-89.257812	-249.804687
74613.933921	0.903153	9.934688	0.154212
74614.959928	0.493170	71.093750	100.000000
74614.961930	0.821293	71.093750	100.000000
74614.963931	0.906267	71.093750	100.000000
74614.965931	0.903258	9.935840	0.136690
74616.007945	0.395653	-45.117187	-250.292969
74616.009947	0.742668	-45.117187	-250.292969
74616.011946	0.907476	-45.117187	-250.292969
74616.013947	0.905207	9.957278	0.175940
74617.032532	0.498635	75.097656	103.417969
74617.034533	0.825016	75.097656	103.417969
74617.036534	0.906209	75.097656	103.417969
74617.038533	0.903118	9.934299	0.141548
74618.096545	0.329334	-62.792969	-248.925781
74618.098548	0.680276	-62.792969	-248.925781
74618.102546	0.905458	-62.792969	-248.925781
74618.104548	0.903206	-62.792969	-248.925781
74618.106547	0.901677	9.918444	0.164526
74619.112548	0.366509	76.660156	111.230469
74619.114549	0.715529	76.660156	111.230469
74619.116552	0.905765	76.660156	111.230469
74619.118551	0.904969	9.954663	0.137959
74620.180527	0.853966	-66.699219	-258.789062
74620.182530	0.905707	-66.699219	-258.789062
74620.184530	0.902922	9.932144	0.150428
74621.195132	0.435785	76.074219	120.019531
74621.197135	0.900841	76.074219	120.019531
74621.199133	0.903938	76.074219	120.019531
74621.201134	0.901602	9.917619	0.152742
74622.251130	0.547597	-71.386719	-268.359375
74622.255131	0.905148	-71.386719	-268.359375
74622.257134	0.902370	-71.386719	-268.359375
74622.259135	0.900550	9.906054	0.154100
74623.275233	0.565156	72.656250	124.121094
74623.277234	0.863458	72.656250	124.121094
74623.279234	0.904647	72.656250	124.121094
74623.281233	0.901958	9.921535	0.172496
74624.331250	0.433836	-79.003906	-270.507812
74624.333252	0.776088	-79.003906	-270.507812
74624.335251	0.907552	-79.003906	-270.507812
74624.337252	0.904506	9.949568	0.145354
74625.363816	0.498057	65.136719	125.097656
74625.365817	0.824615	65.136719	125.097656
74625.367817	0.906043	65.136719	125.097656
74625.369818	0.903045	9.933492	0.160069
74626.406316	0.838994	-60.937500	-273.632812
74626.408318	0.905628	-60.937500	-273.632812
74626.410320	0.902690	9.929592	0.149955
74627.447285	0.886263	76.953125	118.945312
74627.449287	0.904397	76.953125	118.945312
74627.451286	0.901871	9.920579	0.208527
74628.485849	0.651395	-96.484375	-261.035156
74628.489848	0.904294	-96.484375	-261.035156
74628.491849	0.901877	-96.484375	-261.035156
74628.493851	0.900229	9.902517	0.152199
74629.525839	0.583716	74.707031	116.992187
74629.527841	0.872464	74.707031	116.992187
74629.529841	0.904967	74.707031	116.992187
74629.531840	0.902457	9.927031	0.159589
74630.567871	0.840876	-124.414062	-250.390625
74630.569874	0.905890	-124.414062	-250.390625
74630.571873	0.902989	9.932880	0.142591
74631.605923	0.464708	71.875000	116.308594
74631.607925	0.800612	71.875000	116.308594
74631.609926	0.906647	71.875000	116.308594
74631.611924	0.903502	9.938517	0.161423
74632.645926	0.399407	-120.312500	-247.851562
74632.647928	0.745897	-120.312500	-247.851562
74632.649929	0.905923	-120.312500	-247.851562
74632.651929	0.903564	9.939208	0.152075
74633.687952	0.684826	71.582031	115.136719
74633.689952	0.901546	71.582031	115.136719
74633.691952	0.904318	71.582031	115.136719
74633.693952	0.902050	9.922556	0.155486
74634.728020	0.629779	-131.835937	-242.675781
74634.730021	0.888821	-131.835937	-242.675781
74634.732021	0.904188	-131.835937	-242.675781
74634.734022	0.901755	9.919303	0.153062
74635.770049	0.576854	78.417969	112.695312
74635.772051	0.904612	78.417969	112.695312
74635.774052	0.901943	9.921376	0.149159
74636.808080	0.507717	-127.148437	-242.773437
74636.810080	0.831030	-127.148437	-242.773437
74636.812081	0.906138	-127.148437	-242.773437
74636.814079	0.903200	9.935202	0.151008
74637.848116	0.447210	73.046875	115.917969
74637.852116	0.907448	73.046875	115.917969
74637.856118	0.902255	73.046875	115.917969
74637.858117	0.900841	9.909253	0.151002
74638.888138	0.384162	-71.093750	-255.078125
74638.890140	0.731927	-71.093750	-255.078125
74638.892140	0.905476	-71.093750	-255.078125
74638.894141	0.903778	9.941556	0.145562
74639.930121	0.663076	78.027344	115.625000
74639.932122	0.897287	78.027344	115.625000
74639.936121	0.901591	78.027344	115.625000
74639.940120	0.898871	9.887576	0.154663
74640.960730	0.386112	-52.636719	-261.425781
74640.962730	0.733721	-52.636719	-261.425781
74640.964730	0.905960	-52.636719	-261.425781
74640.966730	0.904150	9.945651	0.172684
74642.010746	0.636104	68.652344	121.582031
74642.012746	0.890699	68.652344	121.582031
74642.014745	0.892436	68.652344	121.582031
74642.016746	0.901692	9.918612	0.157228
74643.050779	0.574770	-119.824219	-249.609375
74643.052778	0.868153	-119.824219	-249.609375
74643.054779	0.904771	-119.824219	-249.609375
74643.056777	0.902207	9.924274	0.135132
74644.090835	0.518580	67.578125	125.781250
74644.092836	0.838045	67.578125	125.781250
74644.094835	0.906097	67.578125	125.781250
74644.096837	0.903245	9.935698	0.152343
74645.130930	0.471121	-131.445312	-248.828125
74645.132931	0.486302	-131.445312	-248.828125
74645.134933	0.906049	-131.445312	-248.828125
74645.136932	0.902956	9.932517	0.140288
74646.162974	0.444793	81.152344	125.195312
74646.164976	0.785004	81.152344	125.195312
74646.166980	0.906671	81.152344	125.195312
74646.168976	0.903581	9.939394	0.182706
74647.211932	0.511475	-100.292969	-256.250000
74647.213932	0.833130	-100.292969	-256.250000
74647.215932	0.905412	-100.292969	-256.250000
74647.217932	0.902481	9.927297	0.143157
74648.243952	0.480502	73.339844	131.347656
74648.245954	0.812381	73.339844	131.347656
74648.247954	0.817303	73.339844	131.347656
74648.249954	0.906684	9.973522	0.167431
74649.294481	0.806457	-111.132812	-251.660156
74649.296483	0.906671	-111.132812	-251.660156
74649.298483	0.903559	9.939145	0.153712
74650.318931	0.856359	68.164062	133.398437
74650.320932	0.905306	68.164062	133.398437
74650.322931	0.902509	9.927598	0.170612
74651.382957	0.735168	-105.468750	-244.335937
74651.384960	0.905569	-105.468750	-244.335937
74651.386962	0.903685	9.940536	0.153451
74652.396981	0.426592	62.695312	131.152344
74652.398983	0.769747	62.695312	131.152344
74652.400983	0.776329	62.695312	131.152344
74652.402983	0.903783	9.941609	0.159718
74653.465027	0.883397	-66.503906	-239.843750
74653.467030	0.904929	-66.503906	-239.843750
74653.469029	0.902511	9.927625	0.165320
74654.479107	0.660967	71.484375	121.582031
74654.481115	0.896890	71.484375	121.582031
74654.483113	0.903990	71.484375	121.582031
74654.485112	0.901577	9.917344	0.140172
74655.543629	0.584581	-41.015625	-234.472656
74655.545631	0.872738	-41.015625	-234.472656
74655.547632	0.904988	-41.015625	-234.472656
74655.549631	0.902403	9.926437	0.166379
74656.558563	0.432480	68.164062	116.796875
74656.560564	0.774775	68.164062	116.796875
74656.562564	0.907223	68.164062	116.796875
74656.564564	0.904235	9.946589	0.142307
74657.618632	0.896739	-39.843750	-232.324219
74657.620635	0.904185	-39.843750	-232.324219
74657.622636	0.901826	9.920083	0.181385
74658.649216	0.726580	76.074219	112.402344
74658.651221	0.905126	76.074219	112.402344
74658.653220	0.903705	9.940750	0.131814
74659.689734	0.748857	-56.445312	-234.082031
74659.691737	0.905931	-56.445312	-234.082031
74659.695732	0.903370	9.937072	0.183330
74660.728305	0.435350	73.535156	116.796875
74660.730306	0.777179	73.535156	116.796875
74660.732306	0.907205	73.535156	116.796875
74660.734308	0.904244	9.946679	0.150917
74661.768301	0.364946	-92.480469	-235.546875
74661.770302	0.713851	-92.480469	-235.546875
74661.772303	0.905677	-92.480469	-235.546875
74661.774301	0.905037	9.955408	0.167968
74662.810342	0.654997	76.953125	121.191406
74662.812344	0.663443	76.953125	121.191406
74662.814344	0.904213	76.953125	121.191406
74662.816345	0.901803	9.919834	0.163968
74663.852357	0.875131	-102.441406	-240.917969
74663.854359	0.904488	-102.441406	-240.917969
74663.856359	0.901854	9.920393	0.154440
74664.892385	0.845890	66.894531	130.859375
74664.894385	0.906034	66.894531	130.859375
74664.896385	0.903192	9.935113	0.161021
74665.930886	0.550223	-121.484375	-241.503906
74665.934888	0.904969	-121.484375	-241.503906
74665.936888	0.902281	-121.484375	-241.503906
74665.938888	0.900461	9.905070	0.155270
74666.972889	0.816064	65.136719	135.937500
74666.974891	0.820864	65.136719	135.937500
74666.976889	0.903043	9.933474	0.162336
74668.010914	0.422850	-99.511719	-247.949219
74668.012916	0.766663	-99.511719	-247.949219
74668.014916	0.907472	-99.511719	-247.949219
74668.018913	0.902510	9.927607	0.153909
74669.052974	0.712196	66.406250	138.964844
74669.054975	0.904599	66.406250	138.964844
74669.056977	0.904117	9.945287	0.159459
74670.093029	0.655400	-114.355469	-243.750000
74670.095035	0.895475	-114.355469	-243.750000
74670.097033	0.903873	-114.355469	-243.750000
74670.099032	0.901499	9.916493	0.157796
74671.125038	0.623442	77.343750	136.328125
74671.127039	0.886993	77.343750	136.328125
74671.129041	0.904417	77.343750	136.328125
74671.131039	0.901867	9.920535	0.232730
74672.175053	0.843507	-112.890625	-243.847656
74672.177056	0.905203	-112.890625	-243.847656
74672.179057	0.902317	9.925488	0.155643
74673.207098	0.827614	74.316406	139.355469
74673.209104	0.905661	74.316406	139.355469
74673.211104	0.902589	9.928485	0.172048
74674.253688	0.503625	-48.828125	-255.761719
74674.255691	0.828240	-48.828125	-255.761719
74674.257692	0.832240	-48.828125	-255.761719
74674.259691	0.902935	9.932286	0.158874
74675.285716	0.473718	64.062500	143.847656
74675.287718	0.807256	64.062500	143.847656
74675.289717	0.906161	64.062500	143.847656
74675.291720	0.903077	9.933846	0.177478
74676.333779	0.383902	-65.136719	-251.074219
74676.335780	0.731614	-65.136719	-251.074219
74676.337778	0.906209	-65.136719	-251.074219
74676.339779	0.904414	9.948548	0.163817
74677.366326	0.447554	62.500000	145.312500
74677.368328	0.787046	62.500000	145.312500
74677.370328	0.906463	62.500000	145.312500
74677.372327	0.903485	9.938339	0.169827
74678.414337	0.346771	-56.445312	-252.148437
74678.418345	0.902706	-56.445312	-252.148437
74678.420347	0.903698	-56.445312	-252.148437
74678.422347	0.901417	9.915590	0.165406
74679.447283	0.480757	65.039062	144.921875
74679.449284	0.812275	65.039062	144.921875
74679.451285	0.905744	65.039062	144.921875
74679.453284	0.902576	9.928333	0.167456
74680.497307	0.730688	-69.531250	-248.828125
74680.499311	0.905806	-69.531250	-248.828125
74680.501310	0.904161	9.945775	0.153989
74681.527917	0.454673	64.453125	145.507812
74681.529919	0.792861	64.453125	145.507812
74681.531918	0.906998	64.453125	145.507812
74681.533919	0.903787	9.941654	0.176654
74682.575965	0.363970	-110.644531	-239.453125
74682.577968	0.712902	-110.644531	-239.453125
74682.581965	0.905060	-110.644531	-239.453125
74682.583967	0.903012	9.933127	0.152120
74683.610023	0.689476	72.656250	141.992187
74683.612024	0.903364	72.656250	141.992187
74683.614023	0.905426	72.656250	141.992187
74683.616023	0.903242	9.935662	0.175732
74684.658588	0.687211	-82.128906	-244.335937
74684.662590	0.904684	-82.128906	-244.335937
74684.664589	0.902485	-82.128906	-244.335937
74684.666592	0.900900	9.909900	0.458224
74685.689544	0.473776	75.488281	138.574219
74685.691547	0.807073	75.488281	138.574219
74685.693546	0.905495	75.488281	138.574219
74685.695548	0.902390	9.926295	0.173071
74686.730521	0.575755	-94.921875	-238.671875
74686.732524	0.868478	-94.921875	-238.671875
74686.734521	0.904660	-94.921875	-238.671875
74686.736522	0.901987	9.921855	0.167864
74687.772529	0.832814	67.285156	139.550781
74687.774530	0.905416	67.285156	139.550781
74687.776531	0.902385	9.926233	0.175865
74688.810593	0.455215	-94.335937	-233.496094
74688.812596	0.793851	-94.335937	-233.496094
74688.814596	0.910863	-94.335937	-233.496094
74688.816596	0.910797	10.018764	0.167627
74689.850605	0.389537	71.875000	134.667969
74689.852607	0.736699	71.875000	134.667969
74689.854609	0.906334	71.875000	134.667969
74689.856608	0.904354	9.947892	0.175271
74690.890660	0.330382	-101.660156	-224.218750
74690.892663	0.681046	-101.660156	-224.218750
74690.896665	0.903947	-101.660156	-224.218750
74690.898671	0.901573	-101.660156	-224.218750
74690.900674	0.899934	9.899274	0.178612
74691.932682	0.619006	82.324219	125.878906
74691.934682	0.885704	82.324219	125.878906
74691.938682	0.902172	82.324219	125.878906
74691.942682	0.899310	9.892414	0.168568
74692.972710	0.555664	-86.035156	-218.261719
74692.974711	0.858768	-86.035156	-218.261719
74692.976713	0.904904	-86.035156	-218.261719
74692.978713	0.902175	9.923929	0.177789
74694.012750	0.497586	69.433594	127.636719
74694.014752	0.823943	69.433594	127.636719
74694.016752	0.827836	69.433594	127.636719
74694.018752	0.902369	9.926064	0.147153
74695.052793	0.438633	-56.152344	-215.234375
74695.054796	0.779806	-56.152344	-215.234375
74695.056795	0.906801	-56.152344	-215.234375
74695.058795	0.903721	9.940936	0.202911
74696.084801	0.404280	65.820312	129.101562
74696.088802	0.906791	65.820312	129.101562
74696.090803	0.904274	65.820312	129.101562
74696.092804	0.902254	9.924798	0.161996
74697.146824	0.904152	-9.570312	-218.945312
74697.148828	0.901651	9.918159	0.189132
74698.156833	0.304615	71.093750	132.324219
74698.158833	0.656532	71.093750	132.324219
74698.160832	0.664082	71.093750	132.324219
74698.162834	0.903497	71.093750	132.324219
74698.164834	0.901023	9.911256	0.170297
74699.222910	0.503752	-1.269531	-223.925781
74699.224911	0.828025	-1.269531	-223.925781
74699.226913	0.905149	-1.269531	-223.925781
74699.228912	0.902131	9.923441	0.195945
74700.238920	0.538895	64.648437	141.699219
74700.240922	0.849451	64.648437	141.699219
74700.242922	0.904612	64.648437	141.699219
74700.244922	0.901729	9.919020	0.163586
74701.302956	0.377490	-35.449219	-226.269531
74701.304959	0.725600	-35.449219	-226.269531
74701.306958	0.904850	-35.449219	-226.269531
74701.308956	0.905043	9.955470	0.187459
74702.318974	0.414600	65.917969	148.632812
74702.320977	0.759255	65.917969	148.632812
74702.322976	0.906448	65.917969	148.632812
74702.324976	0.903733	9.941060	0.171589
74703.387032	0.880205	-44.824219	-232.910156
74703.389034	0.904727	-44.824219	-232.910156
74703.391034	0.902142	9.923566	0.167666
74704.399606	0.390258	67.675781	152.734375
74704.401606	0.737297	67.675781	152.734375
74704.403606	0.905523	67.675781	152.734375
74704.405608	0.903539	9.938924	0.188422
74705.465622	0.575001	-64.062500	-234.570312
74705.469622	0.904317	-64.062500	-234.570312
74705.471623	0.901569	-64.062500	-234.570312
74705.473624	0.899847	9.898316	0.162327
74706.488138	0.310949	65.039062	156.054687
74706.490140	0.662556	65.039062	156.054687
74706.492141	0.897871	65.039062	156.054687
74706.494140	0.904764	65.039062	156.054687
74706.496141	0.902461	9.927067	0.169215
74707.538202	0.575355	-71.484375	-234.863281
74707.540205	0.868166	-71.484375	-234.863281
74707.542206	0.904350	-71.484375	-234.863281
74707.544204	0.901661	9.918266	0.169903
74708.570220	0.546363	71.484375	154.199219
74708.574222	0.904715	71.484375	154.199219
74708.576225	0.901885	71.484375	154.199219
74708.578222	0.900069	9.900763	0.169348
74709.619148	0.606845	-104.492187	-229.199219
74709.621149	0.881666	-104.492187	-229.199219
74709.623149	0.905070	-104.492187	-229.199219
74709.625149	0.902643	9.929078	0.168434
74710.651164	0.576109	70.703125	154.199219
74710.653165	0.868968	70.703125	154.199219
74710.655165	0.905167	70.703125	154.199219
74710.657165	0.902540	9.927935	0.173603
74711.703756	0.904623	-61.425781	-236.230469
74711.705759	0.901983	9.921810	0.157812
74712.732343	0.647984	63.671875	157.812500
74712.734344	0.893791	63.671875	157.812500
74712.736345	0.904100	63.671875	157.812500
74712.738346	0.901612	9.917734	0.334807
74713.780348	0.548283	-62.500000	-235.156250
74713.782349	0.854516	-62.500000	-235.156250
74713.784350	0.904223	-62.500000	-235.156250
74713.786350	0.901358	9.914943	0.156730
74714.813300	0.677809	72.363281	154.687500
74714.815302	0.686557	72.363281	154.687500
74714.817302	0.903849	72.363281	154.687500
74714.819304	0.901443	9.915873	0.457397
74715.861313	0.583790	-108.886719	-225.781250
74715.863317	0.872106	-108.886719	-225.781250
74715.865315	0.904542	-108.886719	-225.781250
74715.867316	0.901964	9.921607	0.164643
74716.893334	0.552371	63.769531	160.253906
74716.895338	0.856927	63.769531	160.253906
74716.897336	0.904825	63.769531	160.253906
74716.899339	0.902077	9.922848	0.168927
74717.941346	0.455909	-65.820312	-231.835937
74717.943346	0.794153	-65.820312	-231.835937
74717.945346	0.909782	-65.820312	-231.835937
74717.947345	0.906438	9.970819	0.163826
74718.965390	0.464046	66.308594	160.449219
74718.967392	0.800021	66.308594	160.449219
74718.969393	0.906851	66.308594	160.449219
74718.971393	0.903740	9.941140	0.190225
74720.023385	0.675375	-93.652344	-223.632812
74720.025388	0.899223	-93.652344	-223.632812
74720.027389	0.900230	-93.652344	-223.632812
74720.029389	0.901130	9.912435	0.177592
74721.047413	0.680986	60.937500	161.523437
74721.049414	0.899863	60.937500	161.523437
74721.053414	0.900754	60.937500	161.523437
74721.055416	0.899246	9.891706	0.178875
74722.103449	0.555122	-35.546875	-228.125000
74722.105451	0.859534	-35.546875	-228.125000
74722.107452	0.907317	-35.546875	-228.125000
74722.109452	0.904437	9.948806	0.181291
74723.127981	0.645575	62.597656	158.593750
74723.133978	0.901690	62.597656	158.593750
74723.135981	0.900084	62.597656	158.593750
74723.137980	0.898944	9.888382	0.302126
74724.191984	0.481495	-78.125000	-212.011719
74724.193986	0.812738	-78.125000	-212.011719
74724.195987	0.905958	-78.125000	-212.011719
74724.197985	0.902842	9.931258	0.167542
74725.200001	0.551028	67.285156	152.050781
74725.202002	0.856038	67.285156	152.050781
74725.204003	0.904418	67.285156	152.050781
74725.206002	0.901611	9.917726	0.176967
74726.272089	0.363724	-16.503906	-212.500000
74726.274092	0.712563	-16.503906	-212.500000
74726.276089	0.904788	-16.503906	-212.500000
74726.278091	0.904296	9.947254	0.179841
74727.284097	0.905889	71.484375	144.042969
74727.286100	0.902874	9.931613	0.174353
74728.346614	0.700632	2.050781	-208.984375
74728.348616	0.902789	2.050781	-208.984375
74728.350614	0.903376	9.937134	0.559796
74729.372587	0.902549	72.460937	139.941406
74729.374590	0.903359	9.936948	0.509004
74730.418605	0.602339	19.921875	-210.546875
74730.420606	0.879077	19.921875	-210.546875
74730.422608	0.903716	19.921875	-210.546875
74730.424606	0.901083	9.911912	0.219496
74731.451567	0.735200	76.074219	137.207031
74731.453571	0.904522	76.074219	137.207031
74731.455569	0.902614	9.928760	0.165451
74732.502121	0.904767	-77.050781	-200.390625
74732.504124	0.903095	9.934041	0.196056
74733.530191	0.362179	79.785156	138.281250
74733.532192	0.711195	79.785156	138.281250
74733.536190	0.903089	79.785156	138.281250
74733.538192	0.900866	9.909528	0.180642
74734.579102	0.419769	-92.382812	-203.222656
74734.581102	0.763830	-92.382812	-203.222656
74734.583102	0.907510	-92.382812	-203.222656
74734.585103	0.904612	9.950737	0.183437
74735.619136	0.359706	65.917969	149.414062
74735.621140	0.708811	65.917969	149.414062
74735.623143	0.904592	65.917969	149.414062
74735.625146	0.905396	9.959360	0.162508
74736.661187	0.651594	-81.738281	-210.253906
74736.663188	0.894381	-81.738281	-210.253906
74736.665188	0.903680	-81.738281	-210.253906
74736.667189	0.901191	9.913099	0.168145
74737.703208	0.874175	65.527344	154.003906
74737.705211	0.904772	65.527344	154.003906
74737.707210	0.902266	9.924922	0.163861
74738.735261	0.862119	-99.121094	-211.523437
74738.737262	0.904136	-99.121094	-211.523437
74738.739263	0.901387	9.915261	0.189190
74739.787732	0.902692	70.507812	155.273437
74739.789735	0.900852	9.909369	0.165587
74740.814279	0.605801	-35.839844	-222.851562
74740.816279	0.880419	-35.839844	-222.851562
74740.818280	0.903899	-35.839844	-222.851562
74740.820280	0.901281	9.914092	0.191246
74741.854797	0.628905	73.437500	156.347656
74741.856801	0.888146	73.437500	156.347656
74741.858800	0.903839	73.437500	156.347656
74741.860799	0.901269	9.913960	0.268545
74742.896805	0.862365	-83.984375	-216.308594
74742.898807	0.904619	-83.984375	-216.308594
74742.900805	0.901998	9.921979	0.183428
74743.934857	0.505920	69.238281	159.960937
74743.936859	0.829263	69.238281	159.960937
74743.938859	0.904886	69.238281	159.960937
74743.940860	0.901810	9.919906	0.193030
74744.974901	0.447326	-82.519531	-216.015625
74744.976905	0.786982	-82.519531	-216.015625
74744.978909	0.907193	-82.519531	-216.015625
74744.980908	0.904023	9.944250	0.183805
74746.014989	0.394679	67.871094	161.328125
74746.016992	0.741369	67.871094	161.328125
74746.018990	0.906486	67.871094	161.328125
74746.020991	0.904310	9.947413	0.196189
74747.055014	0.328675	-89.746094	-213.964844
74747.057016	0.679321	-89.746094	-213.964844
74747.059017	0.900277	-89.746094	-213.964844
74747.063015	0.901502	-89.746094	-213.964844
74747.065015	0.899919	9.899105	0.187201
74748.095070	0.269668	66.894531	161.621094
74748.097071	0.623332	66.894531	161.621094
74748.099072	0.886646	66.894531	161.621094
74748.101073	0.904057	66.894531	161.621094
74748.103071	0.901524	9.916768	0.200199
74749.137143	0.569950	-75.976562	-212.695312
74749.139144	0.578508	-75.976562	-212.695312
74749.141145	0.904438	-75.976562	-212.695312
74749.143145	0.901675	9.918426	0.180772
74750.177162	0.507278	66.699219	161.523437
74750.179164	0.830264	66.699219	161.523437
74750.181164	0.905152	66.699219	161.523437
74750.183163	0.902189	9.924080	0.189680
74751.219195	0.784813	-27.832031	-216.308594
74751.221203	0.906039	-27.832031	-216.308594
74751.223208	0.902896	9.931852	0.184819
74752.259185	0.723384	73.632812	154.980469
74752.261187	0.905329	73.632812	154.980469
74752.263184	0.904003	9.944037	0.185739
74753.297713	0.399787	-37.695312	-209.277344
74753.299715	0.746046	-37.695312	-209.277344
74753.301716	0.906256	-37.695312	-209.277344
74753.303716	0.903858	9.942443	0.193296
74754.340269	0.773777	66.210937	156.445312
74754.342272	0.905719	66.210937	156.445312
74754.344272	0.902797	9.930761	0.183653
74755.378276	0.364552	-60.742187	-198.925781
74755.380279	0.713283	-60.742187	-198.925781
74755.382278	0.903648	-60.742187	-198.925781
74755.386276	0.900786	9.908650	0.193288
74756.420307	0.651370	66.601562	152.636719
74756.422310	0.894779	66.601562	152.636719
74756.424309	0.904218	66.601562	152.636719
74756.426310	0.901781	9.919595	0.336060
74757.462416	0.879713	-64.941406	-191.601562
74757.464418	0.904584	-64.941406	-191.601562
74757.466417	0.902017	9.922183	0.195707
74758.492973	0.665938	72.363281	149.316406
74758.494975	0.897575	72.363281	149.316406
74758.496974	0.903618	72.363281	149.316406
74758.498975	0.901233	9.913560	0.401442
74759.549537	0.632844	-43.164062	-190.136719
74759.551540	0.889601	-43.164062	-190.136719
74759.553539	0.904002	-43.164062	-190.136719
74759.555540	0.901546	9.917007	0.277578
74760.573595	0.642078	62.695312	155.664062
74760.575598	0.892231	62.695312	155.664062
74760.579595	0.903959	62.695312	155.664062
74760.581597	0.899972	9.899691	0.292624
74761.629658	0.519502	4.296875	-195.410156
74761.631662	0.838124	4.296875	-195.410156
74761.633660	0.905323	4.296875	-195.410156
74761.635660	0.902344	9.925781	0.206437
74762.644223	0.297642	63.964844	159.960937
74762.646226	0.649804	63.964844	159.960937
74762.648232	0.894016	63.964844	159.960937
74762.650231	0.903668	63.964844	159.960937
74762.652232	0.901179	9.912967	0.178932
74763.710278	0.493879	-26.757812	-195.214844
74763.712279	0.821097	-26.757812	-195.214844
74763.714279	0.904654	-26.757812	-195.214844
74763.716279	0.901559	9.917150	0.204223
74764.726319	0.534558	59.667969	168.457031
74764.728321	0.846877	59.667969	168.457031
74764.730320	0.904642	59.667969	168.457031
74764.732322	0.901800	9.919799	0.172572
74765.790331	0.368454	-18.457031	-201.953125
74765.792333	0.716929	-18.457031	-201.953125
74765.794333	0.903607	-18.457031	-201.953125
74765.796335	0.902791	9.930700	0.203129
74766.806380	0.410328	57.421875	175.585937
74766.808382	0.755358	57.421875	175.585937
74766.810381	0.906196	57.421875	175.585937
74766.812382	0.903594	9.939535	0.178499
74767.872372	0.590599	-67.675781	-201.269531
74767.874374	0.874851	-67.675781	-201.269531
74767.876372	0.904364	-67.675781	-201.269531
74767.878373	0.901677	9.918444	0.193936
74768.888401	0.626952	56.445312	181.250000
74768.890406	0.887375	56.445312	181.250000
74768.892408	0.903448	56.445312	181.250000
74768.894412	0.900950	9.910450	0.255219
74769.952411	0.464961	-51.367187	-207.324219
74769.954411	0.800675	-51.367187	-207.324219
74769.956412	0.906857	-51.367187	-207.324219
74769.958412	0.903634	9.939970	0.177918
74770.968454	0.504740	68.261719	177.832031
74770.970459	0.828580	68.261719	177.832031
74770.972457	0.905040	68.261719	177.832031
74770.974458	0.901999	9.921988	0.200977
74772.033001	0.434209	-43.652344	-210.546875
74772.035003	0.776055	-43.652344	-210.546875
74772.037002	0.906777	-43.652344	-210.546875
74772.039003	0.903730	9.941033	0.175234
74773.051538	0.861125	62.304687	182.714844
74773.053541	0.904355	62.304687	182.714844
74773.055542	0.901615	9.917761	0.196226
74774.105530	0.425988	-71.777344	-207.128906
74774.107532	0.768951	-71.777344	-207.128906
74774.109537	0.906209	-71.777344	-207.128906
74774.111532	0.903347	9.936814	0.191733
74775.129555	0.430542	65.917969	182.128906
74775.131557	0.772852	65.917969	182.128906
74775.133555	0.906509	65.917969	182.128906
74775.135563	0.903568	9.939252	0.200957
74776.189564	0.893400	-78.613281	-205.273437
74776.191564	0.905127	-78.613281	-205.273437
74776.193563	0.902798	9.930779	0.324697
74777.211543	0.640736	62.695312	184.375000
74777.213546	0.891290	62.695312	184.375000
74777.215546	0.903361	62.695312	184.375000
74777.217545	0.900815	9.908970	0.324455
74778.267583	2.157494	-14.648437	-213.281250
74778.271584	0.904990	-14.648437	-213.281250
74778.273584	0.901996	-14.648437	-213.281250
74778.275585	0.900184	9.902021	0.189336
74779.292518	0.678532	65.234375	183.203125
74779.294518	0.899265	65.234375	183.203125
74779.296520	0.902861	65.234375	183.203125
74779.298517	0.900483	9.905310	0.195387
74780.347118	0.295143	-45.898437	-206.054687
74780.349120	0.647320	-45.898437	-206.054687
74780.351120	0.893174	-45.898437	-206.054687
74780.353120	0.903546	-45.898437	-206.054687
74780.355122	0.901026	9.911291	0.195824
74781.373102	0.646060	58.007812	186.816406
74781.375105	0.892867	58.007812	186.816406
74781.377105	0.903484	58.007812	186.816406
74781.379104	0.901043	9.911478	0.325988
74782.431113	0.835160	13.085937	-209.765625
74782.433113	0.904485	13.085937	-209.765625
74782.435113	0.901425	9.915678	0.206137
74783.456068	0.899638	61.035156	183.300781
74783.458071	0.902986	61.035156	183.300781
74783.462069	0.899115	9.890270	0.453898
74784.520630	0.882876	-9.472656	-199.609375
74784.522631	0.904025	-9.472656	-199.609375
74784.524631	0.901527	9.916795	0.179291
74785.524648	0.331559	69.824219	174.121094
74785.526650	0.681996	69.824219	174.121094
74785.528651	0.900387	69.824219	174.121094
74785.530650	0.903461	69.824219	174.121094
74785.532650	0.901128	9.912408	0.201971
74786.600684	0.817782	-25.585937	-189.550781
74786.602685	0.904827	-25.585937	-189.550781
74786.604685	0.901679	9.918470	0.188658
74787.606709	0.557642	67.089844	171.386719
74787.608710	0.859251	67.089844	171.386719
74787.610710	0.904120	67.089844	171.386719
74787.612717	0.901292	9.914207	0.180850
74788.673272	0.818731	35.253906	-190.820312
74788.675272	0.904876	35.253906	-190.820312
74788.679272	0.899805	9.897856	0.216218
74789.695800	0.581553	66.015625	167.675781
74789.697800	0.870897	66.015625	167.675781
74789.699801	0.904342	66.015625	167.675781
74789.701801	0.901672	9.918390	0.151545
74790.752746	0.612861	-26.660156	-180.371094
74790.754748	0.882947	-26.660156	-180.371094
74790.756748	0.903777	-26.660156	-180.371094
74790.758749	0.901216	9.913374	0.212155
74791.776724	0.607029	64.160156	166.210937
74791.778726	0.881162	64.160156	166.210937
74791.780725	0.904326	64.160156	166.210937
74791.784723	0.900083	9.900913	0.161291
74792.824718	0.508755	17.285156	-186.230469
74792.826720	0.830991	17.285156	-186.230469
74792.830718	0.901586	17.285156	-186.230469
74792.832722	0.899649	9.896136	0.220733
74793.856739	0.478996	69.042969	163.964844
74793.858740	0.811013	69.042969	163.964844
74793.860745	0.906539	69.042969	163.964844
74793.864752	0.901467	9.916140	0.179145
74794.904794	0.386985	-41.406250	-182.910156
74794.908794	0.905572	-41.406250	-182.910156
74794.912794	0.901630	-41.406250	-182.910156
74794.914795	0.900125	9.901375	0.213462
74795.944833	0.324575	69.433594	167.968750
74795.946836	0.675341	69.433594	167.968750
74795.948833	0.899078	69.433594	167.968750
74795.950835	0.903336	69.433594	167.968750
74795.954832	0.899408	9.893487	0.164630
74796.985404	0.357925	-60.937500	-183.886719
74796.987406	0.706955	-60.937500	-183.886719
74796.989404	0.904604	-60.937500	-183.886719
74796.991405	0.904627	9.950897	0.191113
74798.025451	0.295977	64.550781	175.097656
74798.027453	0.648219	64.550781	175.097656
74798.029452	0.893651	64.550781	175.097656
74798.031452	0.903800	64.550781	175.097656
74798.033453	0.901390	9.915288	0.169671
74799.059468	0.619217	9.960937	-196.484375
74799.063468	0.903875	9.960937	-196.484375
74799.065468	0.901271	9.960937	-196.484375
74799.067469	0.901226	9.913489	0.246454
74800.107512	0.526395	67.480469	176.367187
74800.109514	0.841962	67.480469	176.367187
74800.111513	0.904538	67.480469	176.367187
74800.113514	0.901565	9.917220	0.171213
74801.139523	0.493858	2.246094	-198.144531
74801.141526	0.821020	2.246094	-198.144531
74801.143524	0.904803	2.246094	-198.144531
74801.145523	0.901682	9.918506	0.213752
74802.188032	0.483573	71.289062	176.757812
74802.190033	0.813989	71.289062	176.757812
74802.192034	0.905276	71.289062	176.757812
74802.194033	0.902134	9.923477	0.171135
74803.222046	0.790678	-64.941406	-189.843750
74803.224047	0.906280	-64.941406	-189.843750
74803.228046	0.901266	9.913923	0.201214
74804.260015	0.379683	67.285156	181.152344
74804.262017	0.727349	67.285156	181.152344
74804.264017	0.905094	67.285156	181.152344
74804.266017	0.903618	9.939801	0.206642
74805.300055	0.316155	-47.070312	-192.187500
74805.304057	0.897556	-47.070312	-192.187500
74805.306056	0.903408	-47.070312	-192.187500
74805.308057	0.900946	9.910405	0.204781
74806.342079	0.604997	68.554687	180.468750
74806.344081	0.880062	68.554687	180.468750
74806.346081	0.903681	68.554687	180.468750
74806.348082	0.901046	9.911504	0.198533
74807.384118	0.853228	-52.343750	-189.453125
74807.386119	0.904314	-52.343750	-189.453125
74807.388121	0.901536	9.916893	0.199620
74808.424142	0.813285	70.898437	177.929687
74808.428141	0.901731	70.898437	177.929687
74808.430143	0.899783	9.897617	0.196772
74809.464227	0.769567	-61.230469	-185.937500
74809.468228	0.903218	-61.230469	-185.937500
74809.470227	0.901156	9.912718	0.199780
74810.504316	0.724357	75.097656	173.535156
74810.506318	0.904140	75.097656	173.535156
74810.508316	0.902764	9.930408	0.189680
74811.544332	0.661320	-4.101562	-188.867187
74811.546331	0.896238	-4.101562	-188.867187
74811.548337	0.903222	-4.101562	-188.867187
74811.550336	0.900783	9.908615	0.210429
74812.582959	0.355237	67.675781	176.269531
74812.586958	0.903372	67.675781	176.269531
74812.588962	0.903561	67.675781	176.269531
74812.590962	0.901218	9.913401	0.183947
74813.625005	0.643846	-21.386719	-181.250000
74813.627007	0.892089	-21.386719	-181.250000
74813.629006	0.903337	-21.386719	-181.250000
74813.631009	0.900766	9.908429	0.354474
74814.664991	0.574636	61.914062	177.539062
74814.666993	0.867458	61.914062	177.539062
74814.668993	0.903899	61.914062	177.539062
74814.670992	0.901188	9.913073	0.169885
74815.705023	0.515156	-6.445312	-177.441406
74815.707024	0.835451	-6.445312	-177.441406
74815.709023	0.904844	-6.445312	-177.441406
74815.711024	0.901762	9.919383	0.222299
74816.737070	0.489937	70.312500	172.460937
74816.739071	0.818303	70.312500	172.460937
74816.741071	0.904717	70.312500	172.460937
74816.743070	0.901574	9.917317	0.181934
74817.793606	0.450116	32.910156	-178.515625
74817.795608	0.788884	32.910156	-178.515625
74817.797607	0.906299	32.910156	-178.515625
74817.799607	0.903231	9.935538	0.201485
74818.820560	0.882718	65.917969	177.343750
74818.822560	0.903672	65.917969	177.343750
74818.824560	0.901022	9.911239	0.173830
74819.875074	0.571644	9.570312	-175.097656
74819.877077	0.865912	9.570312	-175.097656
74819.881075	0.900923	9.570312	-175.097656
74819.883076	0.899275	9.892024	0.214741
74820.893151	0.884817	69.335937	179.003906
74820.895155	0.903434	69.335937	179.003906
74820.897152	0.900821	9.909031	0.191911
74821.955690	0.544501	57.812500	-183.105469
74821.957691	0.852512	57.812500	-183.105469
74821.959692	0.904584	57.812500	-183.105469
74821.961694	0.901785	9.919640	0.222084
74822.970635	0.392963	59.667969	190.234375
74822.972636	0.739769	59.667969	190.234375
74822.974636	0.906507	59.667969	190.234375
74822.976636	0.904328	9.947609	0.184622
74824.036671	0.581785	28.906250	-184.960937
74824.038675	0.870911	28.906250	-184.960937
74824.040674	0.904121	28.906250	-184.960937
74824.044671	0.899696	9.896650	0.212764
74825.052729	0.626046	65.234375	192.187500
74825.054731	0.887390	65.234375	192.187500
74825.056731	0.903940	65.234375	192.187500
74825.058730	0.901396	9.915359	0.252713
74826.118793	0.804987	26.171875	-189.355469
74826.120795	0.905899	26.171875	-189.355469
74826.122797	0.902772	9.930496	0.203557
74827.135334	0.876454	56.152344	203.320312
74827.137336	0.903612	56.152344	203.320312
74827.139335	0.900919	9.910112	0.183552
74828.197357	0.435215	-10.156250	-188.476562
74828.199359	0.776468	-10.156250	-188.476562
74828.201359	0.905344	-10.156250	-188.476562
74828.203359	0.902366	9.926021	0.199363
74829.213358	1.573181	54.785156	207.519531
74829.215360	0.801203	54.785156	207.519531
74829.217360	0.905806	54.785156	207.519531
74829.219358	0.902695	9.929645	0.203158
74830.277375	0.299459	-16.992187	-189.746094
74830.279375	0.651431	-16.992187	-189.746094
74830.281377	0.894244	-16.992187	-189.746094
74830.283377	0.903571	-16.992187	-189.746094
74830.285376	0.901107	9.912178	0.193465
74831.295433	0.692773	65.820312	202.636719
74831.297436	0.902201	65.820312	202.636719
74831.299437	0.903314	9.936451	0.539207
74832.361513	0.850944	-3.125000	-192.187500
74832.363514	0.904077	-3.125000	-192.187500
74832.365514	0.901170	9.912868	0.182541
74833.376029	0.662233	61.328125	206.347656
74833.378030	0.896368	61.328125	206.347656
74833.380029	0.903025	61.328125	206.347656
74833.382029	0.900570	9.906275	0.412780
74834.440561	0.589818	-35.449219	-187.109375
74834.442563	0.874282	-35.449219	-187.109375
74834.444563	0.876591	-35.449219	-187.109375
74834.446562	0.901296	9.914260	0.184384
74835.456574	0.623797	53.515625	212.695312
74835.458574	0.886084	53.515625	212.695312
74835.460575	0.903038	53.515625	212.695312
74835.462575	0.900486	9.905345	0.195645
74836.520607	0.465478	-23.925781	-186.816406
74836.522609	0.800819	-23.925781	-186.816406
74836.524609	0.906121	-23.925781	-186.816406
74836.526610	0.903074	9.933810	0.184726
74837.536669	0.509643	53.710937	212.011719
74837.538672	0.831596	53.710937	212.011719
74837.540673	0.904706	53.710937	212.011719
74837.542672	0.901683	9.918514	0.184024
74838.600778	0.357673	-11.230469	-184.277344
74838.602778	0.706612	-11.230469	-184.277344
74838.604779	0.904290	-11.230469	-184.277344
74838.606778	0.904449	9.948938	0.192395
74839.618818	0.744643	51.367187	212.011719
74839.620819	0.905019	51.367187	212.011719
74839.622823	0.902751	9.930265	0.178252
74840.682814	0.580259	11.914062	-181.542969
74840.684818	0.870157	11.914062	-181.542969
74840.686816	0.903957	11.914062	-181.542969
74840.688815	0.901325	9.914579	0.191729
74841.698912	0.632039	59.863281	204.394531
74841.700914	0.889093	59.863281	204.394531
74841.702913	0.903754	59.863281	204.394531
74841.704914	0.901198	9.913179	0.171096
74842.763455	0.558570	30.761719	-176.953125
74842.765457	0.859901	30.761719	-176.953125
74842.767459	0.904439	30.761719	-176.953125
74842.769457	0.901683	9.918514	0.194942
74843.771975	0.715527	65.625000	195.996094
74843.773976	0.904514	65.625000	195.996094
74843.775977	0.903864	9.942504	0.617683
74844.846926	0.899397	-0.488281	-168.945312
74844.848929	0.902670	-0.488281	-168.945312
74844.850929	0.900240	9.902642	0.482953
74845.858930	0.365450	54.589844	198.437500
74845.860929	0.713973	54.589844	198.437500
74845.862930	0.904177	54.589844	198.437500
74845.864931	0.903627	9.939898	0.169463
74846.917009	0.595800	19.531250	-166.992187
74846.919010	0.606858	19.531250	-166.992187
74846.921012	0.903695	19.531250	-166.992187
74846.923012	0.901076	9.911840	0.235460
74847.941041	0.600807	60.253906	192.480469
74847.943044	0.878401	60.253906	192.480469
74847.945044	0.903681	60.253906	192.480469
74847.947044	0.901068	9.911743	0.171063
74848.997051	0.468054	-2.636719	-163.867187
74848.999053	0.802533	-2.636719	-163.867187
74849.001054	0.905185	-2.636719	-163.867187
74849.003053	0.902067	9.922742	0.214687
74850.021063	0.473260	63.964844	189.843750
74850.023065	0.806540	63.964844	189.843750
74850.025065	0.905568	63.964844	189.843750
74850.027065	0.902502	9.927518	0.183301
74851.071112	0.727114	50.781250	-171.386719
74851.073114	0.904160	50.781250	-171.386719
74851.075115	0.902556	9.928121	0.226240
74852.105122	0.901547	73.437500	185.253906
74852.107125	0.902711	73.437500	185.253906
74852.109124	0.900297	9.903262	0.548042
74853.151148	0.600137	-4.492187	-167.968750
74853.153150	0.878244	-4.492187	-167.968750
74853.155151	0.903913	-4.492187	-167.968750
74853.157151	0.901217	9.913383	0.203849
74854.191134	0.532600	60.449219	198.339844
74854.193137	0.845600	60.449219	198.339844
74854.195137	0.904456	60.449219	198.339844
74854.197136	0.901564	9.917203	0.172571
74855.231174	0.472703	-19.433594	-169.726562
74855.233176	0.805937	-19.433594	-169.726562
74855.235174	0.904994	-19.433594	-169.726562
74855.237175	0.901855	9.920402	0.196192
74856.271203	1.855717	59.960937	202.148437
74856.273205	0.754651	59.960937	202.148437
74856.275206	0.906614	59.960937	202.148437
74856.277207	0.904045	9.944489	0.182817
74857.313314	0.709766	29.003906	-177.246094
74857.315314	0.903319	29.003906	-177.246094
74857.319317	0.900797	9.908766	0.599590
74858.353340	0.649175	61.523437	203.027344
74858.355341	0.893660	61.523437	203.027344
74858.357341	0.903545	61.523437	203.027344
74858.359342	0.901092	9.912009	0.332954
74859.385374	0.622922	11.230469	-176.464844
74859.387376	0.886211	11.230469	-176.464844
74859.389376	0.903758	11.230469	-176.464844
74859.391375	0.901163	9.912788	0.266967
74860.433415	0.528896	66.308594	201.660156
74860.435417	0.843651	66.308594	201.660156
74860.439414	0.904602	66.308594	201.660156
74860.441417	0.899936	9.899292	0.184614
74861.465960	0.587550	-12.402344	-172.753906
74861.467958	0.873400	-12.402344	-172.753906
74861.469963	0.904200	-12.402344	-172.753906
74861.471962	0.901612	9.917734	0.214448
74862.515978	0.821204	64.843750	203.906250
74862.517981	0.905167	64.843750	203.906250
74862.519979	0.902085	9.922936	0.171391
74863.548523	0.857926	-13.085937	-171.386719
74863.550525	0.904172	-13.085937	-171.386719
74863.552525	0.901436	9.915793	0.210645
74864.586557	0.493118	62.597656	205.078125
74864.590560	0.904895	62.597656	205.078125
74864.592559	0.901947	62.597656	205.078125
74864.594559	0.900056	9.900612	0.200249
74865.626604	0.436397	19.628906	-171.875000
74865.628604	0.777701	19.628906	-171.875000
74865.630606	0.906258	19.628906	-171.875000
74865.632614	0.903244	9.935680	0.219741
74866.668689	0.726436	61.621094	204.785156
74866.670691	0.904578	61.621094	204.785156
74866.672691	0.903108	9.934183	0.196786
74867.708679	0.658955	24.804687	-168.554687
74867.710682	0.896202	24.804687	-168.554687
74867.712683	0.903803	24.804687	-168.554687
74867.714681	0.901339	9.914730	0.421599
74868.748714	0.599967	62.304687	201.855469
74868.750717	0.878178	62.304687	201.855469
74868.752717	0.903729	62.304687	201.855469
74868.754714	0.901130	9.912435	0.183646
74869.788741	0.538460	45.996094	-166.406250
74869.790743	0.848832	45.996094	-166.406250
74869.792742	0.904030	45.996094	-166.406250
74869.794741	0.901134	9.912478	0.229946
74870.828770	0.477532	58.496094	203.320312
74870.830772	0.809871	58.496094	203.320312
74870.832774	0.906747	58.496094	203.320312
74870.834774	0.903614	9.939757	0.175931
74871.876806	0.381983	28.808594	-160.937500
74871.878809	0.729432	28.808594	-160.937500
74871.880810	0.905276	28.808594	-160.937500
74871.882811	0.903683	9.940511	0.208525
74872.900781	0.376956	65.136719	199.218750
74872.902785	0.724833	65.136719	199.218750
74872.904787	0.904563	65.136719	199.218750
74872.906790	0.903092	9.934014	0.193024
74873.958854	0.604462	23.632812	-158.300781
74873.960857	0.879757	23.632812	-158.300781
74873.964857	0.901018	23.632812	-158.300781
74873.966859	0.899372	9.893097	0.223750
74874.982894	0.611604	55.957031	207.519531
74874.984895	0.882517	55.957031	207.519531
74874.986895	0.903866	55.957031	207.519531
74874.988896	0.901346	9.914809	0.183826
74876.040911	0.813511	31.445312	-159.179687
74876.042913	0.905225	31.445312	-159.179687
74876.044913	0.902136	9.923495	0.228253
74877.063371	0.561532	51.269531	215.332031
74877.065372	0.861029	51.269531	215.332031
74877.069373	0.900956	51.269531	215.332031
74877.071372	0.899310	9.892406	0.171431
74878.119427	0.437692	51.367187	-163.183594
74878.121431	0.778644	51.367187	-163.183594
74878.123429	0.906006	51.367187	-163.183594
74878.125429	0.903027	9.933296	0.232688
74879.135496	0.483572	64.746094	211.328125
74879.139498	0.904767	64.746094	211.328125
74879.141498	0.901684	64.746094	211.328125
74879.143499	0.899732	9.897049	0.192539
74880.201528	0.670072	80.468750	-170.117187
74880.203530	0.897893	80.468750	-170.117187
74880.205529	0.903081	80.468750	-170.117187
74880.207531	0.900666	9.907330	0.232378
74881.216061	0.448665	52.148437	225.976562
74881.218063	0.787558	52.148437	225.976562
74881.220062	0.906102	52.148437	225.976562
74881.222062	0.903090	9.933988	0.201275
74882.282085	0.632167	60.839844	-171.777344
74882.284086	0.888954	60.839844	-171.777344
74882.286088	0.903485	60.839844	-171.777344
74882.288086	0.900929	9.910219	0.301585
74883.298120	0.671089	51.660156	230.761719
74883.300121	0.898454	51.660156	230.761719
74883.302122	0.903477	51.660156	230.761719
74883.304124	0.901105	9.912160	0.443488
74884.362090	0.502011	52.832031	-173.632812
74884.364091	0.826413	52.832031	-173.632812
74884.366092	0.904583	52.832031	-173.632812
74884.368096	0.901493	9.916423	0.215273
74885.380153	0.853378	51.269531	234.277344
74885.382155	0.904775	51.269531	234.277344
74885.384156	0.901945	9.921394	0.198655
74886.442171	1.618087	41.601562	-173.828125
74886.444173	0.728440	41.601562	-173.828125
74886.446173	0.904933	41.601562	-173.828125
74886.448173	0.903306	9.936371	0.212181
74887.458163	0.413300	62.304687	227.148437
74887.460163	0.757755	62.304687	227.148437
74887.462164	0.906121	62.304687	227.148437
74887.464165	0.903427	9.937701	0.201084
74888.524234	0.605415	50.878906	-175.000000
74888.526236	0.879973	50.878906	-175.000000
74888.530234	0.900681	50.878906	-175.000000
74888.532237	0.899122	9.890341	0.210998
74889.540843	0.744293	63.183594	227.636719
74889.542844	0.905910	63.183594	227.636719
74889.544845	0.903656	9.940218	0.197232
74890.606860	0.870396	43.652344	-173.144531
74890.608862	0.903688	43.652344	-173.144531
74890.610860	0.900969	9.910662	0.201558
74891.621425	0.711807	55.468750	234.277344
74891.623427	0.903356	55.468750	234.277344
74891.625429	0.902865	9.931515	0.194423
74892.687450	0.855680	43.652344	-169.628906
74892.689454	0.904167	43.652344	-169.628906
74892.691453	0.901291	9.914198	0.204807
74893.703489	0.874695	49.023437	237.597656
74893.705491	0.903563	49.023437	237.597656
74893.707490	0.900956	9.910521	0.180946
74894.765999	0.513043	71.191406	-167.968750
74894.768001	0.833481	71.191406	-167.968750
74894.770000	0.904181	71.191406	-167.968750
74894.771999	0.901083	9.911912	0.218377
74895.780498	0.277494	56.152344	230.957031
74895.784500	0.888370	56.152344	230.957031
74895.786499	0.903283	56.152344	230.957031
74895.788499	0.900710	9.907808	0.185477
74896.848551	0.807493	26.562500	-158.691406
74896.850553	0.905791	26.562500	-158.691406
74896.852553	0.902780	9.930576	0.211434
74897.862616	0.519026	50.488281	230.468750
74897.864618	0.837279	50.488281	230.468750
74897.866618	0.904202	50.488281	230.468750
74897.870616	0.899354	9.892893	0.181401
74898.926630	0.351254	65.234375	-157.812500
74898.928634	0.700457	65.234375	-157.812500
74898.930631	0.902335	65.234375	-157.812500
74898.932633	0.902961	9.932570	0.213903
74899.944634	0.734667	62.011719	218.164062
74899.946634	0.903843	62.011719	218.164062
74899.948636	0.901895	9.920845	0.178592
74901.000646	0.604220	58.007812	-153.515625
74901.002648	0.879698	58.007812	-153.515625
74901.004655	0.903738	58.007812	-153.515625
74901.006658	0.901117	9.912284	0.232494
74902.024674	0.606489	60.546875	216.992187
74902.026675	0.880497	60.546875	216.992187
74902.028674	0.903631	60.546875	216.992187
74902.030675	0.900993	9.910928	0.181764
74903.080706	0.482049	59.570312	-152.734375
74903.082706	0.812559	59.570312	-152.734375
74903.084706	0.904290	59.570312	-152.734375
74903.086707	0.901111	9.912222	0.223941
74904.106784	0.821466	62.597656	214.550781
74904.108787	0.904243	62.597656	214.550781
74904.110787	0.901132	9.912453	0.190497
74905.162881	0.725160	42.382812	-151.660156
74905.164882	0.903937	42.382812	-151.660156
74905.166883	0.902531	9.927846	0.210144
74906.194897	0.693213	62.988281	215.332031
74906.196899	0.702303	62.988281	215.332031
74906.198900	0.902063	62.988281	215.332031
74906.200899	0.899733	9.897058	0.521341
74907.233847	0.446859	56.054687	-156.152344
74907.235851	0.786355	56.054687	-156.152344
74907.237850	0.907515	56.054687	-156.152344
74907.239851	0.904392	9.948309	0.227025
74908.273845	0.377856	58.886719	220.410156
74908.275847	0.725576	58.886719	220.410156
74908.277847	0.905412	58.886719	220.410156
74908.279847	0.904024	9.944259	0.183861
74909.315953	0.676135	23.632812	-154.687500
74909.319950	0.902475	23.632812	-154.687500
74909.321952	0.900139	23.632812	-154.687500
74909.323953	0.898749	9.886238	0.217918
74910.355981	0.616165	68.066406	217.089844
74910.357982	0.883478	68.066406	217.089844
74910.359985	0.902963	68.066406	217.089844
74910.361984	0.900346	9.903803	0.195387
74911.398036	0.860648	55.957031	-159.667969
74911.400037	0.904086	55.957031	-159.667969
74911.402038	0.901370	9.915067	0.205467
74912.436090	0.503055	59.375000	227.148437
74912.438092	0.827112	59.375000	227.148437
74912.440092	0.904621	59.375000	227.148437
74912.442092	0.901556	9.917113	0.186111
74913.476150	0.445850	22.070312	-157.226562
74913.478152	0.785431	22.070312	-157.226562
74913.480153	0.906770	22.070312	-157.226562
74913.482153	0.903680	9.940483	0.202610
74914.516207	0.389222	59.277344	228.515625
74914.518209	0.736072	59.277344	228.515625
74914.520210	0.905682	59.277344	228.515625
74914.522210	0.903788	9.941671	0.185735
